Frequency (kHz)	|Vac(V_METER2.VM1@1)| (V) : High Pass.AP
0.02	0.0170414
0.03	0.0255609
0.04	0.0340783
0.05	0.0425955
0.06	0.0511076
0.07	0.059619
0.08	0.0681279
0.09	0.076632
0.1	0.0851331
0.11	0.093628
0.12	0.102118
0.13	0.110602
0.14	0.11908
0.15	0.127553
0.16	0.136022
0.17	0.14448
0.18	0.15293
0.19	0.16137
0.2	0.169802
0.21	0.178228
0.22	0.186647
0.23	0.195054
0.24	0.203444
0.25	0.211825
0.26	0.220204
0.27	0.228559
0.28	0.236911
0.29	0.245247
0.3	0.253568
0.31	0.261878
0.32	0.270166
0.33	0.278461
0.34	0.286729
0.35	0.294979
0.36	0.303214
0.37	0.311433
0.38	0.319638
0.39	0.327822
0.4	0.335997
0.41	0.344156
0.42	0.352298
0.43	0.360413
0.44	0.368512
0.45	0.376587
0.46	0.384656
0.47	0.392698
0.48	0.40072
0.49	0.408726
0.5	0.416709
0.51	0.42467
0.52	0.432609
0.53	0.440533
0.54	0.448427
0.55	0.456312
0.56	0.464163
0.57	0.471994
0.58	0.479802
0.59	0.487599
0.6	0.495345
0.61	0.50309
0.62	0.510803
0.63	0.518492
0.64	0.526163
0.65	0.533794
0.66	0.541412
0.67	0.548999
0.68	0.556572
0.69	0.5641
0.7	0.571624
0.71	0.57911
0.72	0.586562
0.73	0.593995
0.74	0.601423
0.75	0.608789
0.76	0.616144
0.77	0.623468
0.78	0.630762
0.79	0.638036
0.8	0.645276
0.81	0.652499
0.82	0.659681
0.83	0.666821
0.84	0.673949
0.85	0.681048
0.86	0.68813
0.87	0.695157
0.88	0.702167
0.89	0.709143
0.9	0.716118
0.91	0.723026
0.92	0.729922
0.93	0.736793
0.94	0.743631
0.95	0.750438
0.96	0.7572
0.97	0.763963
0.98	0.770679
0.99	0.777347
1	0.784008
1.01	0.790627
1.02	0.797219
1.03	0.803766
1.04	0.810298
1.05	0.816798
1.06	0.823262
1.07	0.829705
1.08	0.836111
1.09	0.842485
1.1	0.848839
1.11	0.855133
1.12	0.861423
1.13	0.867676
1.14	0.873888
1.15	0.880076
1.16	0.886234
1.17	0.892357
1.18	0.898467
1.19	0.904521
1.2	0.910551
1.21	0.916556
1.22	0.922516
1.23	0.928463
1.24	0.934368
1.25	0.940246
1.26	0.946099
1.27	0.951904
1.28	0.957687
1.29	0.963456
1.3	0.969181
1.31	0.974874
1.32	0.980503
1.33	0.986148
1.34	0.991755
1.35	0.997313
1.36	1.00284
1.37	1.00834
1.38	1.01384
1.39	1.01931
1.4	1.02473
1.41	1.03008
1.42	1.03544
1.43	1.04077
1.44	1.04608
1.45	1.05134
1.46	1.05657
1.47	1.06178
1.48	1.06695
1.49	1.0721
1.5	1.07723
1.51	1.08228
1.52	1.08736
1.53	1.09237
1.54	1.09737
1.55	1.10235
1.56	1.10731
1.57	1.11219
1.58	1.11708
1.59	1.12193
1.6	1.12675
1.61	1.13153
1.62	1.13631
1.63	1.14107
1.64	1.14578
1.65	1.15046
1.66	1.15509
1.67	1.15973
1.68	1.16432
1.69	1.16889
1.7	1.17346
1.71	1.17796
1.72	1.18245
1.73	1.18692
1.74	1.19133
1.75	1.19573
1.76	1.20015
1.77	1.20446
1.78	1.20882
1.79	1.21312
1.8	1.21739
1.81	1.22164
1.82	1.22589
1.83	1.23008
1.84	1.2342
1.85	1.23837
1.86	1.24247
1.87	1.24655
1.88	1.25066
1.89	1.25467
1.9	1.25869
1.91	1.26273
1.92	1.26668
1.93	1.27061
1.94	1.27448
1.95	1.27842
1.96	1.28228
1.97	1.28614
1.98	1.28994
1.99	1.29372
2	1.29752
2.01	1.30125
2.02	1.30498
2.03	1.3087
2.04	1.31238
2.05	1.31606
2.06	1.31968
2.07	1.32327
2.08	1.32685
2.09	1.33038
2.1	1.33397
2.11	1.33748
2.12	1.34098
2.13	1.34444
2.14	1.3479
2.15	1.35134
2.16	1.35473
2.17	1.35812
2.18	1.36153
2.19	1.36485
2.2	1.36819
2.21	1.37147
2.22	1.37475
2.23	1.37798
2.24	1.38125
2.25	1.38446
2.26	1.38764
2.27	1.39086
2.28	1.394
2.29	1.39716
2.3	1.40025
2.31	1.40338
2.32	1.40642
2.33	1.40949
2.34	1.41251
2.35	1.41554
2.36	1.41857
2.37	1.42152
2.38	1.42449
2.39	1.42741
2.4	1.43035
2.41	1.43326
2.42	1.43617
2.43	1.43903
2.44	1.44187
2.45	1.44471
2.46	1.44753
2.47	1.45032
2.48	1.45309
2.49	1.45584
2.5	1.45863
2.51	1.46134
2.52	1.464
2.53	1.46672
2.54	1.46943
2.55	1.47208
2.56	1.47471
2.57	1.47735
2.58	1.47994
2.59	1.48254
2.6	1.48513
2.61	1.48765
2.62	1.49023
2.63	1.49275
2.64	1.49523
2.65	1.49772
2.66	1.50025
2.67	1.50268
2.68	1.50512
2.69	1.50754
2.7	1.51
2.71	1.51239
2.72	1.51476
2.73	1.51715
2.74	1.51947
2.75	1.52185
2.76	1.52416
2.77	1.52642
2.78	1.52877
2.79	1.53108
2.8	1.53336
2.81	1.53559
2.82	1.53779
2.83	1.54005
2.84	1.54224
2.85	1.54447
2.86	1.54664
2.87	1.54879
2.88	1.55098
2.89	1.5531
2.9	1.55523
2.91	1.55736
2.92	1.55948
2.93	1.56156
2.94	1.56363
2.95	1.56571
2.96	1.56775
2.97	1.56987
2.98	1.57184
2.99	1.57385
3	1.57586
3.01	1.57782
3.02	1.57981
3.03	1.58176
3.04	1.58376
3.05	1.58569
3.06	1.58759
3.07	1.58951
3.08	1.59142
3.09	1.59337
3.1	1.59523
3.11	1.59705
3.12	1.59896
3.13	1.60078
3.14	1.60261
3.15	1.60443
3.16	1.60625
3.17	1.60806
3.18	1.60986
3.19	1.61164
3.2	1.6134
3.21	1.61517
3.22	1.61687
3.23	1.61867
3.24	1.62038
3.25	1.62208
3.26	1.62384
3.27	1.62551
3.28	1.62719
3.29	1.62885
3.3	1.63054
3.31	1.63217
3.32	1.63383
3.33	1.63547
3.34	1.63709
3.35	1.63871
3.36	1.64032
3.37	1.64192
3.38	1.64353
3.39	1.6451
3.4	1.64665
3.41	1.6482
3.42	1.64977
3.43	1.65125
3.44	1.65283
3.45	1.65434
3.46	1.65586
3.47	1.65738
3.48	1.65889
3.49	1.66037
3.5	1.66186
3.51	1.66331
3.52	1.66483
3.53	1.6662
3.54	1.66769
3.55	1.66914
3.56	1.67053
3.57	1.67196
3.58	1.67334
3.59	1.67479
3.6	1.67617
3.61	1.67753
3.62	1.67892
3.63	1.68035
3.64	1.68168
3.65	1.683
3.66	1.68436
3.67	1.68564
3.68	1.68705
3.69	1.68833
3.7	1.68963
3.71	1.691
3.72	1.69227
3.73	1.69354
3.74	1.69482
3.75	1.69612
3.76	1.6974
3.77	1.6987
3.78	1.69991
3.79	1.70121
3.8	1.70242
3.81	1.70364
3.82	1.70489
3.83	1.70607
3.84	1.70729
3.85	1.70845
3.86	1.70973
3.87	1.71092
3.88	1.71206
3.89	1.71327
3.9	1.71443
3.91	1.71562
3.92	1.71675
3.93	1.71789
3.94	1.71902
3.95	1.7202
3.96	1.72135
3.97	1.72249
3.98	1.72359
3.99	1.72472
4	1.7258
4.01	1.72692
4.02	1.72804
4.03	1.72912
4.04	1.73025
4.05	1.7313
4.06	1.73231
4.07	1.73342
4.08	1.73452
4.09	1.73553
4.1	1.73662
4.11	1.73763
4.12	1.73866
4.13	1.73972
4.14	1.74074
4.15	1.74175
4.16	1.74273
4.17	1.74376
4.18	1.74477
4.19	1.74576
4.2	1.74673
4.21	1.74775
4.22	1.74878
4.23	1.7497
4.24	1.75067
4.25	1.75167
4.26	1.75258
4.27	1.75358
4.28	1.7545
4.29	1.75548
4.3	1.75641
4.31	1.75734
4.32	1.75829
4.33	1.75923
4.34	1.76015
4.35	1.761
4.36	1.76193
4.37	1.76283
4.38	1.76375
4.39	1.76465
4.4	1.76553
4.41	1.76644
4.42	1.76732
4.43	1.76819
4.44	1.76908
4.45	1.76994
4.46	1.77081
4.47	1.77163
4.48	1.77248
4.49	1.77339
4.5	1.77421
4.51	1.77506
4.52	1.77593
4.53	1.77671
4.54	1.77753
4.55	1.77842
4.56	1.77921
4.57	1.77999
4.58	1.7808
4.59	1.78161
4.6	1.7825
4.61	1.78326
4.62	1.78406
4.63	1.78484
4.64	1.78559
4.65	1.78645
4.66	1.78717
4.67	1.78795
4.68	1.78867
4.69	1.78943
4.7	1.79025
4.71	1.79098
4.72	1.79176
4.73	1.79251
4.74	1.79324
4.75	1.79399
4.76	1.79476
4.77	1.7955
4.78	1.79622
4.79	1.79696
4.8	1.79769
4.81	1.79837
4.82	1.79913
4.83	1.79988
4.84	1.80057
4.85	1.80126
4.86	1.80199
4.87	1.80268
4.88	1.80341
4.89	1.80401
4.9	1.80478
4.91	1.80541
4.92	1.80608
4.93	1.80676
4.94	1.80752
4.95	1.80816
4.96	1.80883
4.97	1.80945
4.98	1.81013
4.99	1.8108
5	1.81149
5.01	1.81205
5.02	1.81271
5.03	1.81341
5.04	1.81398
5.05	1.81464
5.06	1.81529
5.07	1.81596
5.08	1.81658
5.09	1.81722
5.1	1.81784
5.11	1.81851
5.12	1.8191
5.13	1.81967
5.14	1.8203
5.15	1.8209
5.16	1.82157
5.17	1.82214
5.18	1.82272
5.19	1.82324
5.2	1.82389
5.21	1.82452
5.22	1.8251
5.23	1.82574
5.24	1.82628
5.25	1.82691
5.26	1.82743
5.27	1.82801
5.28	1.82858
5.29	1.82916
5.3	1.82977
5.31	1.83032
5.32	1.8309
5.33	1.83144
5.34	1.83199
5.35	1.83247
5.36	1.83307
5.37	1.83361
5.38	1.83416
5.39	1.83479
5.4	1.8353
5.41	1.8358
5.42	1.83634
5.43	1.83696
5.44	1.83738
5.45	1.83789
5.46	1.83852
5.47	1.83899
5.48	1.83951
5.49	1.84005
5.5	1.84056
5.51	1.8411
5.52	1.84157
5.53	1.84211
5.54	1.8426
5.55	1.84309
5.56	1.84356
5.57	1.84413
5.58	1.84461
5.59	1.84515
5.6	1.84556
5.61	1.8461
5.62	1.84661
5.63	1.84707
5.64	1.84752
5.65	1.84808
5.66	1.84851
5.67	1.84897
5.68	1.8495
5.69	1.84992
5.7	1.85043
5.71	1.85089
5.72	1.8513
5.73	1.85176
5.74	1.85228
5.75	1.85274
5.76	1.85318
5.77	1.85362
5.78	1.85412
5.79	1.85458
5.8	1.85501
5.81	1.85544
5.82	1.85592
5.83	1.85635
5.84	1.85682
5.85	1.85727
5.86	1.85767
5.87	1.85815
5.88	1.85853
5.89	1.85897
5.9	1.85941
5.91	1.8599
5.92	1.8603
5.93	1.86076
5.94	1.86115
5.95	1.8615
5.96	1.86193
5.97	1.8624
5.98	1.86281
5.99	1.86321
6	1.86359
6.01	1.86411
6.02	1.86448
6.03	1.8649
6.04	1.86527
6.05	1.86567
6.06	1.86606
6.07	1.86647
6.08	1.8669
6.09	1.86728
6.1	1.86773
6.11	1.8681
6.12	1.86846
6.13	1.86889
6.14	1.86921
6.15	1.86965
6.16	1.87006
6.17	1.87044
6.18	1.87079
6.19	1.87111
6.2	1.87153
6.21	1.87192
6.22	1.87233
6.23	1.87266
6.24	1.87307
6.25	1.87345
6.26	1.87376
6.27	1.87419
6.28	1.87455
6.29	1.87489
6.3	1.8753
6.31	1.87566
6.32	1.87599
6.33	1.87634
6.34	1.87668
6.35	1.877
6.36	1.87741
6.37	1.87776
6.38	1.87817
6.39	1.87848
6.4	1.87879
6.41	1.87916
6.42	1.87946
6.43	1.87985
6.44	1.88024
6.45	1.88054
6.46	1.88094
6.47	1.88123
6.48	1.88153
6.49	1.88193
6.5	1.88226
6.51	1.88263
6.52	1.88291
6.53	1.88325
6.54	1.88357
6.55	1.88386
6.56	1.88418
6.57	1.88452
6.58	1.88488
6.59	1.88521
6.6	1.88549
6.61	1.88581
6.62	1.88612
6.63	1.88649
6.64	1.88673
6.65	1.8871
6.66	1.88739
6.67	1.88786
6.68	1.88803
6.69	1.88837
6.7	1.88868
6.71	1.889
6.72	1.88923
6.73	1.88964
6.74	1.8899
6.75	1.8902
6.76	1.89053
6.77	1.8908
6.78	1.89108
6.79	1.89141
6.8	1.89176
6.81	1.89189
6.82	1.89228
6.83	1.89257
6.84	1.89286
6.85	1.89318
6.86	1.89343
6.87	1.89376
6.88	1.894
6.89	1.89426
6.9	1.89463
6.91	1.89487
6.92	1.89519
6.93	1.89543
6.94	1.89571
6.95	1.89603
6.96	1.89635
6.97	1.89653
6.98	1.89682
6.99	1.89713
7	1.89736
7.01	1.89765
7.02	1.89792
7.03	1.89822
7.04	1.89849
7.05	1.89869
7.06	1.89896
7.07	1.89925
7.08	1.89954
7.09	1.89985
7.1	1.90006
7.11	1.90033
7.12	1.90063
7.13	1.90092
7.14	1.90114
7.15	1.90144
7.16	1.90162
7.17	1.90188
7.18	1.90214
7.19	1.90236
7.2	1.90265
7.21	1.90291
7.22	1.90315
7.23	1.90346
7.24	1.90369
7.25	1.90387
7.26	1.90419
7.27	1.90441
7.28	1.90465
7.29	1.90494
7.3	1.90518
7.31	1.90539
7.32	1.90566
7.33	1.90596
7.34	1.90617
7.35	1.90637
7.36	1.90658
7.37	1.90686
7.38	1.90709
7.39	1.90736
7.4	1.90756
7.41	1.9078
7.42	1.90809
7.43	1.90823
7.44	1.90852
7.45	1.90878
7.46	1.90898
7.47	1.90918
7.48	1.90945
7.49	1.90969
7.5	1.90989
7.51	1.9102
7.52	1.91033
7.53	1.91057
7.54	1.9108
7.55	1.91096
7.56	1.91126
7.57	1.91149
7.58	1.91169
7.59	1.91196
7.6	1.91215
7.61	1.91233
7.62	1.91257
7.63	1.91274
7.64	1.91303
7.65	1.91317
7.66	1.91348
7.67	1.91364
7.68	1.91389
7.69	1.91409
7.7	1.91425
7.71	1.91445
7.72	1.91466
7.73	1.91494
7.74	1.91517
7.75	1.91537
7.76	1.91556
7.77	1.91568
7.78	1.91591
7.79	1.91615
7.8	1.91635
7.81	1.91656
7.82	1.91675
7.83	1.91697
7.84	1.9172
7.85	1.91734
7.86	1.9176
7.87	1.91782
7.88	1.91799
7.89	1.9181
7.9	1.91839
7.91	1.91859
7.92	1.91872
7.93	1.91896
7.94	1.9192
7.95	1.91938
7.96	1.91953
7.97	1.91968
7.98	1.91991
7.99	1.92017
8	1.92027
8.01	1.92058
8.02	1.92068
8.03	1.9209
8.04	1.92107
8.05	1.9212
8.06	1.92142
8.07	1.92166
8.08	1.92179
8.09	1.92202
8.1	1.92225
8.11	1.92233
8.12	1.92258
8.13	1.92273
8.14	1.92289
8.15	1.92304
8.16	1.92323
8.17	1.92345
8.18	1.92359
8.19	1.92386
8.2	1.92398
8.21	1.9242
8.22	1.92435
8.23	1.92452
8.24	1.92465
8.25	1.92485
8.26	1.92495
8.27	1.92519
8.28	1.92539
8.29	1.92559
8.3	1.92567
8.31	1.92591
8.32	1.92612
8.33	1.92626
8.34	1.92638
8.35	1.92654
8.36	1.92674
8.37	1.92692
8.38	1.9271
8.39	1.92719
8.4	1.92745
8.41	1.92757
8.42	1.92777
8.43	1.92795
8.44	1.92802
8.45	1.92827
8.46	1.92841
8.47	1.92859
8.48	1.92876
8.49	1.92895
8.5	1.92903
8.51	1.92914
8.52	1.92935
8.53	1.92953
8.54	1.92971
8.55	1.9299
8.56	1.92996
8.57	1.93011
8.58	1.93032
8.59	1.93045
8.6	1.93066
8.61	1.93078
8.62	1.93089
8.63	1.93114
8.64	1.93126
8.65	1.93148
8.66	1.93156
8.67	1.93171
8.68	1.93192
8.69	1.932
8.7	1.93216
8.71	1.93226
8.72	1.93248
8.73	1.93269
8.74	1.93279
8.75	1.93293
8.76	1.93313
8.77	1.93323
8.78	1.93341
8.79	1.93353
8.8	1.93364
8.81	1.93379
8.82	1.93397
8.83	1.93423
8.84	1.93425
8.85	1.93439
8.86	1.93447
8.87	1.93465
8.88	1.93482
8.89	1.93502
8.9	1.9351
8.91	1.93526
8.92	1.9354
8.93	1.93552
8.94	1.93569
8.95	1.93577
8.96	1.93594
8.97	1.93605
8.98	1.93617
8.99	1.93639
9	1.93654
9.01	1.93661
9.02	1.93677
9.03	1.93693
9.04	1.93705
9.05	1.93722
9.06	1.93734
9.07	1.93741
9.08	1.93752
9.09	1.93777
9.1	1.93781
9.11	1.93795
9.12	1.93814
9.13	1.93826
9.14	1.9384
9.15	1.93844
9.16	1.93858
9.17	1.93881
9.18	1.93891
9.19	1.93903
9.2	1.93912
9.21	1.93925
9.22	1.93936
9.23	1.93955
9.24	1.93967
9.25	1.93984
9.26	1.93994
9.27	1.94001
9.28	1.94018
9.29	1.94032
9.3	1.9404
9.31	1.94052
9.32	1.94065
9.33	1.94078
9.34	1.9409
9.35	1.9411
9.36	1.94117
9.37	1.94129
9.38	1.94136
9.39	1.94157
9.4	1.94166
9.41	1.94173
9.42	1.94189
9.43	1.942
9.44	1.94215
9.45	1.94224
9.46	1.94237
9.47	1.94248
9.48	1.94261
9.49	1.94271
9.5	1.94286
9.51	1.94295
9.52	1.94316
9.53	1.94318
9.54	1.94333
9.55	1.94343
9.56	1.94357
9.57	1.94366
9.58	1.94388
9.59	1.94384
9.6	1.94408
9.61	1.94412
9.62	1.94429
9.63	1.94438
9.64	1.94448
9.65	1.94457
9.66	1.94474
9.67	1.94478
9.68	1.94486
9.69	1.94501
9.7	1.9451
9.71	1.94516
9.72	1.94539
9.73	1.94546
9.74	1.94561
9.75	1.94561
9.76	1.94585
9.77	1.94593
9.78	1.94597
9.79	1.94612
9.8	1.94619
9.81	1.94635
9.82	1.94649
9.83	1.9466
9.84	1.94663
9.85	1.94682
9.86	1.94682
9.87	1.94696
9.88	1.94719
9.89	1.94715
9.9	1.94729
9.91	1.94735
9.92	1.94746
9.93	1.94759
9.94	1.94767
9.95	1.94788
9.96	1.94796
9.97	1.94799
9.98	1.94814
9.99	1.94826
10	1.94832
10.01	1.94843
10.02	1.94851
10.03	1.94857
10.04	1.94876
10.05	1.9488
10.06	1.94899
10.07	1.94902
10.08	1.94911
10.09	1.94926
10.1	1.94934
10.11	1.94947
10.12	1.9496
10.13	1.94973
10.14	1.94974
10.15	1.94979
10.16	1.94996
10.17	1.95001
10.18	1.95014
10.19	1.95022
10.2	1.95034
10.21	1.95038
10.22	1.95056
10.23	1.95069
10.24	1.95071
10.25	1.95073
10.26	1.95093
10.27	1.95099
10.28	1.95104
10.29	1.95115
10.3	1.9513
10.31	1.95136
10.32	1.95145
10.33	1.95159
10.34	1.95164
10.35	1.95176
10.36	1.95183
10.37	1.95197
10.38	1.95197
10.39	1.95208
10.4	1.95219
10.41	1.95233
10.42	1.95247
10.43	1.95249
10.44	1.95254
10.45	1.95269
10.46	1.95275
10.47	1.95281
10.48	1.95288
10.49	1.95305
10.5	1.95309
10.51	1.95316
10.52	1.95323
10.53	1.95333
10.54	1.95344
10.55	1.95357
10.56	1.95366
10.57	1.95367
10.58	1.95373
10.59	1.95382
10.6	1.95396
10.61	1.95406
10.62	1.95415
10.63	1.95419
10.64	1.95431
10.65	1.95432
10.66	1.95447
10.67	1.9546
10.68	1.95459
10.69	1.95472
10.7	1.95484
10.71	1.95493
10.72	1.95498
10.73	1.95505
10.74	1.95516
10.75	1.95522
10.76	1.95532
10.77	1.95542
10.78	1.95552
10.79	1.95558
10.8	1.95565
10.81	1.95572
10.82	1.95582
10.83	1.95593
10.84	1.95596
10.85	1.95606
10.86	1.95614
10.87	1.95627
10.88	1.95622
10.89	1.95637
10.9	1.9565
10.91	1.95655
10.92	1.95661
10.93	1.95665
10.94	1.95677
10.95	1.95687
10.96	1.95684
10.97	1.95703
10.98	1.95705
10.99	1.95721
11	1.95722
11.01	1.95735
11.02	1.95743
11.03	1.95746
11.04	1.95751
11.05	1.95764
11.06	1.95767
11.07	1.95775
11.08	1.95788
11.09	1.95794
11.1	1.95808
11.11	1.95809
11.12	1.95813
11.13	1.95822
11.14	1.95837
11.15	1.95838
11.16	1.95845
11.17	1.95861
11.18	1.95866
11.19	1.95865
11.2	1.9588
11.21	1.95882
11.22	1.95887
11.23	1.95897
11.24	1.95905
11.25	1.95915
11.26	1.95919
11.27	1.95926
11.28	1.95925
11.29	1.95933
11.3	1.95948
11.31	1.95962
11.32	1.95962
11.33	1.95972
11.34	1.95983
11.35	1.95982
11.36	1.9599
11.37	1.95994
11.38	1.9601
11.39	1.96009
11.4	1.96021
11.41	1.9602
11.42	1.96025
11.43	1.96039
11.44	1.96051
11.45	1.96051
11.46	1.96059
11.47	1.9607
11.48	1.9608
11.49	1.96078
11.5	1.9609
11.51	1.96094
11.52	1.96099
11.53	1.96106
11.54	1.96114
11.55	1.96118
11.56	1.9613
11.57	1.96134
11.58	1.96141
11.59	1.96141
11.6	1.9615
11.61	1.96167
11.62	1.96164
11.63	1.96177
11.64	1.96181
11.65	1.96184
11.66	1.96198
11.67	1.96199
11.68	1.96205
11.69	1.96218
11.7	1.9622
11.71	1.96227
11.72	1.9623
11.73	1.96237
11.74	1.96251
11.75	1.96256
11.76	1.96253
11.77	1.96263
11.78	1.96276
11.79	1.9628
11.8	1.96286
11.81	1.96296
11.82	1.96296
11.83	1.96304
11.84	1.96309
11.85	1.96315
11.86	1.96323
11.87	1.96331
11.88	1.96336
11.89	1.96339
11.9	1.96353
11.91	1.96361
11.92	1.96361
11.93	1.96365
11.94	1.96371
11.95	1.96379
11.96	1.96384
11.97	1.96387
11.98	1.96401
11.99	1.96399
12	1.96414
12.01	1.96414
12.02	1.96417
12.03	1.96427
12.04	1.96432
12.05	1.96443
12.06	1.96449
12.07	1.96452
12.08	1.96455
12.09	1.96463
12.1	1.96467
12.11	1.96473
12.12	1.96482
12.13	1.96495
12.14	1.96494
12.15	1.96495
12.16	1.96501
12.17	1.96509
12.18	1.96509
12.19	1.96518
12.2	1.96529
12.21	1.96535
12.22	1.96533
12.23	1.96549
12.24	1.96551
12.25	1.96553
12.26	1.96555
12.27	1.96562
12.28	1.96568
12.29	1.96578
12.3	1.96584
12.31	1.96591
12.32	1.96593
12.33	1.96603
12.34	1.96609
12.35	1.96608
12.36	1.96616
12.37	1.96623
12.38	1.96625
12.39	1.96632
12.4	1.96631
12.41	1.96647
12.42	1.96648
12.43	1.96651
12.44	1.96663
12.45	1.96669
12.46	1.96674
12.47	1.96681
12.48	1.96682
12.49	1.9669
12.5	1.96689
12.51	1.96696
12.52	1.96709
12.53	1.9671
12.54	1.96711
12.55	1.96721
12.56	1.96729
12.57	1.96728
12.58	1.9674
12.59	1.96741
12.6	1.96748
12.61	1.96756
12.62	1.96762
12.63	1.96765
12.64	1.96765
12.65	1.96775
12.66	1.96773
12.67	1.96781
12.68	1.9679
12.69	1.96793
12.7	1.96794
12.71	1.96802
12.72	1.96803
12.73	1.96816
12.74	1.96815
12.75	1.96824
12.76	1.96821
12.77	1.96836
12.78	1.96832
12.79	1.96841
12.8	1.96844
12.81	1.96853
12.82	1.96857
12.83	1.96862
12.84	1.96872
12.85	1.96869
12.86	1.96881
12.87	1.96882
12.88	1.96895
12.89	1.96897
12.9	1.96897
12.91	1.96907
12.92	1.96907
12.93	1.96908
12.94	1.9692
12.95	1.96927
12.96	1.96927
12.97	1.96934
12.98	1.96946
12.99	1.96941
13	1.96941
13.01	1.96952
13.02	1.96962
13.03	1.96958
13.04	1.96967
13.05	1.96967
13.06	1.96971
13.07	1.96983
13.08	1.96989
13.09	1.96991
13.1	1.96998
13.11	1.97003
13.12	1.97007
13.13	1.97003
13.14	1.97009
13.15	1.97022
13.16	1.97028
13.17	1.9703
13.18	1.97027
13.19	1.9703
13.2	1.97044
13.21	1.97045
13.22	1.97049
13.23	1.9706
13.24	1.97055
13.25	1.97057
13.26	1.97065
13.27	1.97073
13.28	1.97077
13.29	1.97088
13.3	1.97087
13.31	1.97089
13.32	1.97096
13.33	1.971
13.34	1.9711
13.35	1.97111
13.36	1.97109
13.37	1.97111
13.38	1.9712
13.39	1.97124
13.4	1.97141
13.41	1.97138
13.42	1.97143
13.43	1.97145
13.44	1.97144
13.45	1.97154
13.46	1.97166
13.47	1.97161
13.48	1.97165
13.49	1.97168
13.5	1.97176
13.51	1.97174
13.52	1.9718
13.53	1.97176
13.54	1.97188
13.55	1.97202
13.56	1.97197
13.57	1.97206
13.58	1.97205
13.59	1.9721
13.6	1.9722
13.61	1.97219
13.62	1.97224
13.63	1.97224
13.64	1.97238
13.65	1.97239
13.66	1.9724
13.67	1.97244
13.68	1.97253
13.69	1.97252
13.7	1.97256
13.71	1.97269
13.72	1.97271
13.73	1.97281
13.74	1.97274
13.75	1.9727
13.76	1.97284
13.77	1.97285
13.78	1.97282
13.79	1.97291
13.8	1.97295
13.81	1.97297
13.82	1.97308
13.83	1.97311
13.84	1.97316
13.85	1.97317
13.86	1.97321
13.87	1.97318
13.88	1.97324
13.89	1.97334
13.9	1.97339
13.91	1.97352
13.92	1.97345
13.93	1.97347
13.94	1.9736
13.95	1.97357
13.96	1.97367
13.97	1.97361
13.98	1.97375
13.99	1.97376
14	1.97373
14.01	1.97382
14.02	1.97379
14.03	1.97382
14.04	1.97393
14.05	1.97394
14.06	1.97396
14.07	1.97406
14.08	1.9741
14.09	1.97416
14.1	1.97422
14.11	1.97419
14.12	1.97425
14.13	1.97427
14.14	1.97424
14.15	1.97435
14.16	1.97436
14.17	1.9744
14.18	1.97446
14.19	1.97449
14.2	1.9745
14.21	1.97462
14.22	1.97462
14.23	1.97465
14.24	1.97471
14.25	1.97468
14.26	1.97478
14.27	1.9748
14.28	1.97486
14.29	1.97479
14.3	1.97492
14.31	1.975
14.32	1.97496
14.33	1.97503
14.34	1.97498
14.35	1.97506
14.36	1.97509
14.37	1.97513
14.38	1.97525
14.39	1.97525
14.4	1.97527
14.41	1.97525
14.42	1.97532
14.43	1.97535
14.44	1.97544
14.45	1.97547
14.46	1.97546
14.47	1.97548
14.48	1.97551
14.49	1.97556
14.5	1.97563
14.51	1.97566
14.52	1.97562
14.53	1.97571
14.54	1.97572
14.55	1.97585
14.56	1.97581
14.57	1.97578
14.58	1.97588
14.59	1.97588
14.6	1.97596
14.61	1.976
14.62	1.97605
14.63	1.97608
14.64	1.97603
14.65	1.9761
14.66	1.97618
14.67	1.97619
14.68	1.97624
14.69	1.97619
14.7	1.9763
14.71	1.97634
14.72	1.97638
14.73	1.97637
14.74	1.97641
14.75	1.97647
14.76	1.9765
14.77	1.97654
14.78	1.97656
14.79	1.97662
14.8	1.97652
14.81	1.97663
14.82	1.97662
14.83	1.97669
14.84	1.97675
14.85	1.97676
14.86	1.97684
14.87	1.97685
14.88	1.97693
14.89	1.97696
14.9	1.97699
14.91	1.97697
14.92	1.97696
14.93	1.97701
14.94	1.97704
14.95	1.97714
14.96	1.97714
14.97	1.97715
14.98	1.97718
14.99	1.97724
15	1.97727
15.01	1.97732
15.02	1.97734
15.03	1.97735
15.04	1.97735
15.05	1.97747
15.06	1.97748
15.07	1.97749
15.08	1.97749
15.09	1.97754
15.1	1.97749
15.11	1.97761
15.12	1.97766
15.13	1.97768
15.14	1.97775
15.15	1.97769
15.16	1.97779
15.17	1.9778
15.18	1.97785
15.19	1.97787
15.2	1.97791
15.21	1.9779
15.22	1.97802
15.23	1.97799
15.24	1.97792
15.25	1.97803
15.26	1.97812
15.27	1.97811
15.28	1.97817
15.29	1.97815
15.3	1.97812
15.31	1.97815
15.32	1.97826
15.33	1.97827
15.34	1.97828
15.35	1.97826
15.36	1.97836
15.37	1.97841
15.38	1.9784
15.39	1.97848
15.4	1.97847
15.41	1.97855
15.42	1.97858
15.43	1.97858
15.44	1.97857
15.45	1.97865
15.46	1.97864
15.47	1.97874
15.48	1.97876
15.49	1.97874
15.5	1.97872
15.51	1.97879
15.52	1.97889
15.53	1.97878
15.54	1.97881
15.55	1.97892
15.56	1.97893
15.57	1.97895
15.58	1.97899
15.59	1.97892
15.6	1.97908
15.61	1.97911
15.62	1.97912
15.63	1.97917
15.64	1.97916
15.65	1.97915
15.66	1.97924
15.67	1.97919
15.68	1.97933
15.69	1.97928
15.7	1.97934
15.71	1.97933
15.72	1.97941
15.73	1.97949
15.74	1.97944
15.75	1.97947
15.76	1.97951
15.77	1.97954
15.78	1.97955
15.79	1.97961
15.8	1.9795
15.81	1.97959
15.82	1.97961
15.83	1.97962
15.84	1.97973
15.85	1.97971
15.86	1.97972
15.87	1.97979
15.88	1.97986
15.89	1.97985
15.9	1.97988
15.91	1.97989
15.92	1.97995
15.93	1.97999
15.94	1.97994
15.95	1.98004
15.96	1.98006
15.97	1.98006
15.98	1.98006
15.99	1.98017
16	1.98014
16.01	1.98011
16.02	1.98021
16.03	1.98014
16.04	1.98019
16.05	1.98024
16.06	1.98029
16.07	1.98036
16.08	1.98041
16.09	1.98037
16.1	1.98036
16.11	1.98041
16.12	1.98041
16.13	1.98046
16.14	1.98042
16.15	1.98055
16.16	1.98059
16.17	1.98057
16.18	1.98062
16.19	1.98062
16.2	1.98064
16.21	1.98077
16.22	1.98075
16.23	1.98077
16.24	1.98077
16.25	1.9807
16.26	1.98075
16.27	1.98077
16.28	1.98084
16.29	1.98086
16.3	1.98092
16.31	1.98088
16.32	1.98096
16.33	1.98098
16.34	1.98096
16.35	1.98101
16.36	1.98097
16.37	1.98108
16.38	1.98117
16.39	1.98106
16.4	1.98117
16.41	1.98115
16.42	1.98121
16.43	1.98125
16.44	1.98119
16.45	1.98123
16.46	1.98131
16.47	1.98128
16.48	1.98134
16.49	1.98137
16.5	1.98142
16.51	1.98141
16.52	1.98148
16.53	1.98154
16.54	1.98143
16.55	1.98156
16.56	1.98153
16.57	1.98154
16.58	1.98153
16.59	1.98165
16.6	1.98166
16.61	1.98157
16.62	1.9817
16.63	1.98164
16.64	1.98173
16.65	1.98173
16.66	1.98173
16.67	1.98175
16.68	1.98182
16.69	1.98183
16.7	1.98182
16.71	1.98186
16.72	1.98188
16.73	1.98192
16.74	1.98192
16.75	1.98205
16.76	1.98197
16.77	1.982
16.78	1.98201
16.79	1.98212
16.8	1.98208
16.81	1.98209
16.82	1.98214
16.83	1.98212
16.84	1.98213
16.85	1.98225
16.86	1.98225
16.87	1.98221
16.88	1.98229
16.89	1.98227
16.9	1.9823
16.91	1.98234
16.92	1.9823
16.93	1.98235
16.94	1.98234
16.95	1.98248
16.96	1.9824
16.97	1.9824
16.98	1.98248
16.99	1.98245
17	1.9825
17.01	1.98255
17.02	1.9825
17.03	1.98257
17.04	1.98251
17.05	1.98257
17.06	1.98262
17.07	1.98264
17.08	1.98266
17.09	1.98275
17.1	1.98275
17.11	1.98274
17.12	1.98274
17.13	1.9827
17.14	1.98288
17.15	1.98289
17.16	1.98282
17.17	1.98285
17.18	1.98289
17.19	1.98292
17.2	1.98296
17.21	1.98292
17.22	1.98304
17.23	1.98294
17.24	1.98305
17.25	1.98307
17.26	1.98308
17.27	1.98311
17.28	1.98312
17.29	1.98308
17.3	1.98316
17.31	1.98316
17.32	1.98311
17.33	1.98324
17.34	1.98317
17.35	1.98331
17.36	1.98328
17.37	1.98332
17.38	1.98334
17.39	1.98336
17.4	1.98335
17.41	1.98337
17.42	1.98334
17.43	1.98344
17.44	1.98351
17.45	1.9835
17.46	1.98346
17.47	1.98345
17.48	1.98353
17.49	1.98355
17.5	1.98353
17.51	1.98354
17.52	1.98359
17.53	1.98359
17.54	1.98362
17.55	1.98365
17.56	1.98369
17.57	1.98369
17.58	1.98372
17.59	1.98376
17.6	1.98376
17.61	1.98376
17.62	1.9838
17.63	1.98386
17.64	1.98387
17.65	1.98383
17.66	1.98391
17.67	1.98395
17.68	1.98394
17.69	1.98399
17.7	1.98407
17.71	1.98401
17.72	1.98393
17.73	1.98399
17.74	1.98402
17.75	1.98409
17.76	1.9841
17.77	1.98403
17.78	1.98414
17.79	1.98415
17.8	1.98424
17.81	1.98419
17.82	1.98423
17.83	1.98418
17.84	1.98425
17.85	1.98426
17.86	1.98428
17.87	1.98426
17.88	1.98434
17.89	1.98432
17.9	1.98436
17.91	1.98438
17.92	1.98438
17.93	1.98434
17.94	1.9843
17.95	1.98442
17.96	1.98445
17.97	1.98442
17.98	1.98446
17.99	1.98457
18	1.98458
18.01	1.98457
18.02	1.98465
18.03	1.98457
18.04	1.98462
18.05	1.98463
18.06	1.98464
18.07	1.98471
18.08	1.98472
18.09	1.98473
18.1	1.98472
18.11	1.98481
18.12	1.98478
18.13	1.98471
18.14	1.98479
18.15	1.98479
18.16	1.98483
18.17	1.98485
18.18	1.98483
18.19	1.9849
18.2	1.98492
18.21	1.98484
18.22	1.98498
18.23	1.98488
18.24	1.98496
18.25	1.98497
18.26	1.98506
18.27	1.98501
18.28	1.98506
18.29	1.98507
18.3	1.98501
18.31	1.98508
18.32	1.9851
18.33	1.98518
18.34	1.98513
18.35	1.98508
18.36	1.98523
18.37	1.98524
18.38	1.98522
18.39	1.98522
18.4	1.9852
18.41	1.9853
18.42	1.98525
18.43	1.98528
18.44	1.98529
18.45	1.9853
18.46	1.9853
18.47	1.98529
18.48	1.98539
18.49	1.98544
18.5	1.9854
18.51	1.98543
18.52	1.98546
18.53	1.98551
18.54	1.9855
18.55	1.98553
18.56	1.98555
18.57	1.98559
18.58	1.9856
18.59	1.98561
18.6	1.9856
18.61	1.98565
18.62	1.98564
18.63	1.98559
18.64	1.98566
18.65	1.98566
18.66	1.98571
18.67	1.98568
18.68	1.98573
18.69	1.98574
18.7	1.98579
18.71	1.98575
18.72	1.98579
18.73	1.98582
18.74	1.98586
18.75	1.98583
18.76	1.98586
18.77	1.98583
18.78	1.98587
18.79	1.98588
18.8	1.98587
18.81	1.9859
18.82	1.98593
18.83	1.98597
18.84	1.98602
18.85	1.98597
18.86	1.98602
18.87	1.98609
18.88	1.98608
18.89	1.98602
18.9	1.98613
18.91	1.98611
18.92	1.98611
18.93	1.98612
18.94	1.98616
18.95	1.98611
18.96	1.98617
18.97	1.98622
18.98	1.98623
18.99	1.98628
19	1.98632
19.01	1.98623
19.02	1.98636
19.03	1.98625
19.04	1.98633
19.05	1.98637
19.06	1.9863
19.07	1.98645
19.08	1.9863
19.09	1.98634
19.1	1.98636
19.11	1.98643
19.12	1.98634
19.13	1.98652
19.14	1.98654
19.15	1.98646
19.16	1.98641
19.17	1.98647
19.18	1.98661
19.19	1.98655
19.2	1.98657
19.21	1.98656
19.22	1.98657
19.23	1.98655
19.24	1.98657
19.25	1.98664
19.26	1.98664
19.27	1.98668
19.28	1.98672
19.29	1.98673
19.3	1.98673
19.31	1.98669
19.32	1.98669
19.33	1.98678
19.34	1.98677
19.35	1.98675
19.36	1.9868
19.37	1.98686
19.38	1.98677
19.39	1.98679
19.4	1.98686
19.41	1.98688
19.42	1.98684
19.43	1.98685
19.44	1.98689
19.45	1.98693
19.46	1.98697
19.47	1.98702
19.48	1.987
19.49	1.98692
19.5	1.98695
19.51	1.987
19.52	1.987
19.53	1.98705
19.54	1.9871
19.55	1.98705
19.56	1.98707
19.57	1.98705
19.58	1.98713
19.59	1.98711
19.6	1.98707
19.61	1.98726
19.62	1.98716
19.63	1.98724
19.64	1.98724
19.65	1.98719
19.66	1.98719
19.67	1.98725
19.68	1.98721
19.69	1.9873
19.7	1.98726
19.71	1.98729
19.72	1.98733
19.73	1.9873
19.74	1.98732
19.75	1.98743
19.76	1.98736
19.77	1.98742
19.78	1.98733
19.79	1.98748
19.8	1.98749
19.81	1.98736
19.82	1.98747
19.83	1.98735
19.84	1.98746
19.85	1.98744
19.86	1.98749
19.87	1.98756
19.88	1.98755
19.89	1.98757
19.9	1.98753
19.91	1.98759
19.92	1.98762
19.93	1.98764
19.94	1.98761
19.95	1.98757
19.96	1.98767
19.97	1.98769
19.98	1.98768
19.99	1.98769
20	1.98763
